# Time (s),Vertical velocity (m/s),Angle of attack (°)
0,0,90
0.01,0,90
0.02,0.60412,72.113
0.03,1.4929,51.282
0.04,2.3681,38.039
0.05,3.2408,29.629
0.06,4.1155,24.151
0.07,4.9993,20.282
0.08,5.894,17.423
0.09,6.7996,15.235
0.1,7.7143,13.514
0.11,8.6286,12.011
0.12,9.5458,10.781
0.13,10.468,9.7541
0.14,11.396,8.8844
0.15,12.329,8.139
0.16,13.267,7.661
0.17,14.21,7.2427
0.18,15.159,6.8734
0.19,16.111,6.5457
0.2,17.061,6.255
0.21,18.013,5.9103
0.22,18.968,5.5987
0.23,19.926,5.3158
0.24,20.888,5.0578
0.25,21.854,4.8215
0.26,22.823,4.7037
0.27,23.795,4.5948
0.28,24.771,4.4937
0.29,25.751,4.3997
0.3,26.734,4.312
0.31,27.72,4.2099
0.32,28.71,4.1144
0.33,29.703,4.0247
0.34,30.7,3.9404
0.35,31.699,3.861
0.365,33.193,3.7456
0.3875,35.433,3.5899
0.42125,38.806,3.2194
0.47125,43.825,2.7041
0.52125,48.864,2.4253
0.57125,53.882,2.2052
0.62125,58.786,1.8934
0.67125,63.618,1.6507
0.72125,67.398,1.4727
0.77125,68.292,1.2727
0.82125,68.764,1.2031
0.87125,69.299,1.1722
0.92125,69.896,1.0531
0.97125,70.557,0.95491
1.0213,71.274,0.89057
1.0713,72.002,0.8057
1.1213,72.731,0.74083
1.1713,73.459,0.67942
1.2213,74.189,0.63102
1.2713,74.918,0.57479
1.3213,75.648,0.47628
1.3713,76.378,0.42013
1.4213,77.108,0.38118
1.4713,77.839,0.3599
1.5213,78.57,0.31981
1.5713,79.301,0.26325
1.6213,80.032,0.22109
1.6713,80.764,0.10932
1.7213,81.495,0.017078
1.7713,82.227,0.031467
1.8213,82.959,0.14044
1.8713,83.691,0.19738
1.9213,84.423,0.2712
1.9713,85.156,0.3178
2.0213,85.888,0.33992
2.0713,86.62,0.40348
2.1213,87.353,0.46773
2.1713,88.085,0.5308
2.2213,88.818,0.58697
2.2713,89.55,0.65815
2.3213,90.282,0.67655
2.3713,91.015,0.68971
2.4212,91.747,0.74656
2.4712,92.48,0.77977
2.5212,93.212,0.8094
2.5712,93.945,0.78553
2.6212,94.677,0.7111
2.6712,95.41,0.68549
2.7212,96.142,0.70505
2.7712,96.875,0.70237
2.8212,97.608,0.72801
2.8712,98.34,0.70817
2.9212,99.073,0.70362
2.9712,99.806,0.66723
3.0212,100.54,0.60538
3.0712,101.27,0.5499
3.1212,102.01,0.46666
3.1712,102.74,0.4426
3.2212,103.47,0.37914
3.2712,104.21,0.30565
3.3212,104.94,0.25092
3.3712,105.67,0.13951
3.4212,106.41,0.030391
3.4712,107.14,0.065557
3.5212,107.87,0.17179
3.5712,108.61,0.28642
3.6212,109.34,0.38165
3.6712,110.07,0.46293
3.7212,110.81,0.53563
3.7712,111.54,0.5966
3.8212,112.28,0.62736
3.8712,113.01,0.62637
3.9212,113.74,0.57849
3.9712,114.47,0.54801
4.0212,115.21,0.57305
4.0712,115.94,0.57871
4.1212,116.67,0.56201
4.1712,117.4,0.55296
4.2212,118.14,0.50856
4.2712,118.87,0.43275
4.3212,119.6,0.3434
4.3712,120.33,0.27319
4.4212,121.06,0.19804
4.4712,121.79,0.17252
4.5212,122.52,0.13844
4.5712,123.25,0.071973
4.6212,123.98,0.011754
4.6712,124.71,0.09507
4.7212,125.43,0.12564
4.7712,126.16,0.19935
4.8212,126.89,0.2885
4.8712,127.61,0.28879
4.9212,128.34,0.30155
4.9712,129.07,0.28232
5.0212,129.79,0.20266
5.0712,130.52,0.19484
5.1212,131.24,0.21333
5.1712,131.96,0.23754
5.2212,132.69,0.27154
5.2712,133.41,0.26646
5.3212,134.13,0.23568
5.3712,134.85,0.19239
5.4212,135.57,0.17765
5.4712,136.3,0.12621
5.5212,137.02,0.060849
5.5712,137.74,0.033546
5.6212,138.46,0.033696
5.6712,139.18,0.069802
5.7212,139.89,0.080913
5.7712,140.61,0.072943
5.8212,141.33,0.081878
5.8712,142.05,0.094392
5.9212,142.76,0.061968
5.9712,143.48,0.068801
6.0212,144.2,0.057005
6.0712,144.91,0.058014
6.1212,145.63,0.055026
6.1712,146.34,0.044471
6.2212,147.05,0.063961
6.2712,147.76,0.08303
6.3212,148.48,0.071351
6.3712,149.19,0.050554
6.4212,149.9,0.031233
6.4712,150.61,0.055683
6.5212,151.32,0.047314
6.5712,152.02,0.0032917
6.6212,152.73,0.035412
6.6712,153.44,0.0091154
6.7212,154.14,0.0064867
6.7712,154.85,0.049053
6.8212,155.55,0.07734
6.8712,156.26,0.097304
6.9212,156.96,0.12487
6.9712,157.66,0.10928
7.0212,158.36,0.064945
7.0712,159.06,0.02665
7.1212,159.76,0.033501
7.1712,160.46,0.013283
7.2212,161.16,0.020118
7.2712,161.86,0.012665
7.3212,162.56,0.0011943
7.3712,163.25,0.013283
7.4212,163.95,0.037568
7.4712,164.64,0.011759
7.5212,165.33,0.03031
7.5712,166.03,0.049454
7.6212,166.72,0.054918
7.6712,167.41,0.05076
7.7212,168.1,0.04679
7.7712,168.79,0.065071
7.8212,169.48,0.078944
7.8712,170.17,0.068683
7.9212,170.85,0.061141
7.9712,171.54,0.067642
8.0212,172.22,0.059976
8.0712,172.91,0.020604
8.1212,173.59,0.016766
8.1712,174.27,0.036122
8.2212,174.95,0.05033
8.2712,175.63,0.064493
8.3212,176.31,0.074422
8.3712,176.99,0.0904
8.4212,177.66,0.098449
8.4712,178.34,0.10081
8.5212,179.01,0.080273
8.5712,179.69,0.060542
8.6212,180.36,0.030804
8.6712,181.03,0.027846
8.7212,181.7,0.049868
8.7712,182.37,0.050179
8.8212,183.04,0.057062
8.8712,183.71,0.068431
8.9212,184.38,0.072346
8.9712,185.04,0.097699
9.0212,185.71,0.10914
9.0712,186.37,0.083863
9.1212,187.04,0.08706
9.1712,187.7,0.070507
9.2212,188.36,0.039497
9.2712,189.02,0.034583
9.3212,189.68,0.017513
9.3712,190.33,0.018369
9.4212,190.99,0.048873
9.4713,191.64,0.099083
9.5213,192.3,0.15601
9.5713,192.95,0.1855
9.6213,193.6,0.17659
9.6713,194.25,0.14348
9.7213,194.9,0.10042
9.7713,195.54,0.065847
9.8213,196.19,0.046028
9.8713,196.84,0.010789
9.9213,197.48,0.014965
9.9713,198.12,0.054245
10.021,198.77,0.11418
10.071,199.41,0.1478
10.121,200.05,0.16645
10.171,200.69,0.17259
10.221,201.33,0.17866
10.271,201.97,0.18022
10.321,202.6,0.16165
10.371,203.24,0.10712
10.421,203.87,0.039087
10.471,204.5,0.040847
10.521,205.13,0.12185
10.571,205.76,0.18664
10.621,206.39,0.22825
10.671,207.01,0.22032
10.721,207.64,0.20789
10.771,208.26,0.17343
10.821,208.88,0.10109
10.871,209.5,0.04757
10.921,210.12,0.0029764
10.971,210.74,0.026945
11.021,211.36,0.073349
11.071,211.98,0.11967
11.121,212.6,0.15636
11.171,213.22,0.16661
11.221,213.83,0.1539
11.271,214.44,0.1365
11.321,215.06,0.095402
11.371,215.67,0.054066
11.421,216.28,0.018283
11.471,216.88,0.031847
11.521,217.49,0.076833
11.571,218.09,0.094567
11.621,218.7,0.099644
11.671,219.3,0.11229
11.721,219.9,0.117
11.771,220.5,0.10791
11.821,221.09,0.10901
11.871,221.69,0.095154
11.921,222.29,0.056169
11.971,222.88,0.013828
12.021,223.47,0.055202
12.071,224.07,0.10824
12.121,224.66,0.12026
12.171,225.25,0.12324
12.221,225.84,0.10876
12.271,226.43,0.10098
12.321,227.02,0.082199
12.371,227.6,0.050847
12.421,228.19,0.0020758
12.471,228.77,0.033438
12.521,229.35,0.068669
12.571,229.93,0.08022
12.621,230.51,0.081916
12.671,231.08,0.074614
12.721,231.66,0.064919
12.771,232.23,0.056752
12.821,232.81,0.021884
12.871,233.38,0.018879
12.921,233.95,0.039902
12.971,234.52,0.056292
13.021,235.09,0.063995
13.071,235.61,0.042789
13.121,236.1,0.013364
13.171,236.54,3.2247e-4
13.221,236.94,0.010707
13.271,237.3,0.024333
13.321,237.61,0.017771
13.371,237.88,8.9591e-4
13.421,238.11,0.013556
13.471,238.3,0.029404
13.521,238.44,0.034608
13.571,238.55,0.023881
13.621,238.61,0.015576
13.671,238.63,0.0067615
13.721,238.61,0.049385
13.771,238.55,0.052049
13.821,238.44,0.034909
13.871,238.3,0.033533
13.921,238.12,0.0425
13.971,237.89,0.046821
14.021,237.63,0.0022312
14.071,237.33,0.032034
14.121,236.98,0.033447
14.171,236.6,0.047947
14.221,236.18,0.032348
14.271,235.72,0.0078358
14.321,235.22,0.0031116
14.371,234.69,0.023215
14.421,234.11,0.039296
14.471,233.5,0.022115
14.521,232.84,0.020012
14.571,232.15,6.1728e-4
14.621,231.42,0.0092303
14.671,230.65,0.01488
14.721,229.85,0.047969
14.771,229.01,0.058828
14.821,228.12,0.02392
14.871,227.21,0.02048
14.921,226.25,0.026166
14.971,225.26,0.0091025
15.021,224.23,0.0012001
15.071,223.21,0.0037566
15.121,222.19,0.0029888
15.171,221.17,0.020558
15.221,220.17,0.036963
15.271,219.16,0.022955
15.321,218.17,0.027036
15.371,217.18,0.018101
15.421,216.19,0.0014219
15.471,215.21,0.015019
15.521,214.24,0.03425
15.571,213.27,0.017845
15.621,212.31,0.029404
15.671,211.35,0.068748
15.721,210.4,0.061945
15.771,209.45,0.077773
15.821,208.51,0.10596
15.871,207.57,0.11818
15.921,206.64,0.12433
15.971,205.71,0.10729
16.021,204.79,0.021965
16.071,203.87,0.055914
16.121,202.96,0.089216
16.171,202.05,0.11217
16.221,201.14,0.10809
16.271,200.24,0.105
16.321,199.35,0.10146
16.371,198.45,0.10592
16.421,197.57,0.091173
16.471,196.69,0.052099
16.521,195.81,0.0095436
16.571,194.93,0.073501
16.621,194.07,0.080721
16.671,193.2,0.05569
16.721,192.34,0.056998
16.771,191.48,0.055777
16.821,190.63,0.041775
16.871,189.78,0.025442
16.921,188.93,0.012101
16.971,188.09,0.012088
17.021,187.26,0.035936
17.071,186.42,0.020982
17.121,185.59,0.012321
17.171,184.76,0.0056669
17.221,183.94,0.0063861
17.271,183.12,0.011518
17.321,182.31,0.0074106
17.371,181.49,0.0078573
17.421,180.68,0.018644
17.471,179.88,0.052877
17.521,179.08,0.031954
17.571,178.28,0.0074028
17.621,177.48,0.020228
17.671,176.69,0.0057426
17.721,175.9,0.028681
17.771,175.11,0.026724
17.821,174.33,0.019682
17.871,173.55,0.030613
17.921,172.78,0.011291
17.971,172,0.026901
18.021,171.23,0.066116
18.071,170.46,0.064885
18.121,169.7,0.082514
18.171,168.94,0.124
18.221,168.18,0.11625
18.271,167.43,0.076108
18.321,166.67,0.034359
18.371,165.92,0.016123
18.421,165.18,0.020115
18.471,164.43,0.080873
18.521,163.69,0.11539
18.571,162.95,0.1284
18.621,162.21,0.13375
18.671,161.48,0.10806
18.721,160.74,0.10858
18.771,160.01,0.11935
18.821,159.29,0.1234
18.871,158.56,0.13789
18.921,157.84,0.12512
18.971,157.12,0.11181
19.021,156.4,0.11178
19.071,155.69,0.094703
19.121,154.98,0.058801
19.171,154.27,0.0078837
19.221,153.56,0.087755
19.271,152.86,0.19407
19.321,152.16,0.27499
19.371,151.46,0.30503
19.421,150.76,0.35731
19.471,150.07,0.34563
19.521,149.37,0.27799
19.571,148.68,0.2159
19.621,147.99,0.15042
19.671,147.31,0.10004
19.721,146.62,0.053179
19.771,145.94,0.0044199
19.821,145.26,0.067855
19.871,144.58,0.14373
19.921,143.9,0.21793
19.971,143.23,0.25627
20.021,142.55,0.29121
20.071,141.88,0.31055
20.121,141.21,0.32598
20.171,140.54,0.30882
20.221,139.88,0.28351
20.271,139.21,0.26179
20.321,138.55,0.2462
20.371,137.89,0.2017
20.421,137.23,0.11369
20.471,136.58,0.038856
20.521,135.92,0.039593
20.571,135.27,0.11819
20.621,134.62,0.1645
20.671,133.98,0.21027
20.721,133.33,0.30463
20.771,132.69,0.39525
20.821,132.04,0.42906
20.871,131.4,0.42052
20.921,130.77,0.41275
20.971,130.13,0.39381
21.021,129.49,0.36834
21.071,128.86,0.35043
21.121,128.23,0.31214
21.171,127.6,0.23921
21.221,126.97,0.14103
21.271,126.34,0.055995
21.321,125.71,0.0017332
21.371,125.09,0.097148
21.421,124.46,0.2153
21.471,123.84,0.27741
21.521,123.22,0.36391
21.571,122.6,0.42083
21.621,121.98,0.40765
21.671,121.36,0.39244
21.721,120.74,0.37275
21.771,120.13,0.3479
21.821,119.51,0.32073
21.871,118.9,0.30848
21.921,118.29,0.30565
21.971,117.68,0.27917
22.021,117.07,0.23598
22.071,116.47,0.15992
22.121,115.86,0.11091
22.171,115.26,0.047683
22.221,114.66,0.0070507
22.271,114.06,0.028132
22.321,113.46,0.099094
22.371,112.86,0.23148
22.421,112.27,0.33562
22.471,111.67,0.40468
22.521,111.08,0.46771
22.571,110.49,0.46817
22.621,109.9,0.46582
22.671,109.31,0.45998
22.721,108.72,0.41607
22.771,108.14,0.33301
22.821,107.55,0.27789
22.871,106.96,0.26078
22.921,106.38,0.20041
22.971,105.8,0.13941
23.021,105.22,0.058152
23.071,104.64,0.0060549
23.121,104.06,0.054522
23.171,103.48,0.14764
23.221,102.9,0.14664
23.271,102.32,0.13431
23.321,101.75,0.14077
23.371,101.17,0.14393
23.421,100.6,0.16878
23.471,100.02,0.15918
23.521,99.452,0.18466
23.571,98.881,0.22865
23.621,98.311,0.22041
23.671,97.742,0.2236
23.721,97.174,0.26985
23.771,96.607,0.30448
23.821,96.041,0.31289
23.871,95.476,0.29799
23.921,94.912,0.21448
23.971,94.349,0.16417
24.021,93.787,0.14501
24.071,93.226,0.064998
24.121,92.666,0.012481
24.171,92.107,0.0087888
24.221,91.549,0.015762
24.271,90.992,0.053045
24.321,90.436,0.032236
24.371,89.881,0.015589
24.421,89.327,0.1009
24.471,88.773,0.096588
24.521,88.22,0.071238
24.571,87.668,3.8723e-4
24.621,87.117,0.030424
24.671,86.567,0.068902
24.721,86.018,0.17859
24.771,85.47,0.19089
24.821,84.923,0.24442
24.871,84.376,0.32395
24.921,83.831,0.36736
24.971,83.286,0.41579
25.021,82.742,0.48631
25.071,82.2,0.56802
25.121,81.657,0.59852
25.171,81.116,0.59092
25.221,80.576,0.50333
25.271,80.036,0.3719
25.321,79.496,0.38467
25.371,78.957,0.39568
25.421,78.419,0.35225
25.471,77.882,0.3278
25.521,77.345,0.25462
25.571,76.809,0.20878
25.621,76.274,0.15432
25.671,75.739,0.11223
25.721,75.205,0.088405
25.771,74.671,0.0084298
25.821,74.138,0.079875
25.871,73.605,0.19132
25.921,73.073,0.17241
25.971,72.542,0.11407
26.021,72.011,0.19782
26.071,71.481,0.25026
26.121,70.951,0.20171
26.171,70.422,0.22414
26.221,69.894,0.235
26.271,69.366,0.23153
26.321,68.839,0.20037
26.371,68.312,0.21149
26.421,67.787,0.19388
26.471,67.261,0.17531
26.521,66.737,0.15141
26.571,66.212,0.14223
26.621,65.689,0.12536
26.671,65.166,0.11412
26.721,64.644,0.061853
26.771,64.122,0.057112
26.821,63.601,0.12367
26.871,63.081,0.096488
26.921,62.561,0.13098
26.971,62.041,0.12464
27.021,61.522,0.037508
27.071,61.004,0.012693
27.121,60.486,0.024597
27.171,59.969,0.033673
27.221,59.452,0.051939
27.271,58.935,0.09708
27.321,58.419,0.15444
27.371,57.903,0.13865
27.421,57.388,0.088532
27.471,56.874,0.02489
27.521,56.359,0.01233
27.571,55.846,0.066424
27.621,55.333,0.083447
27.671,54.82,0.0099529
27.721,54.308,0.04588
27.771,53.796,0.10806
27.821,53.285,0.052676
27.871,52.774,0.034846
27.921,52.263,0.098752
27.971,51.753,0.15752
28.021,51.244,0.16288
28.071,50.735,0.17576
28.121,50.226,0.18969
28.171,49.718,0.18553
28.221,49.21,0.21169
28.271,48.703,0.20649
28.321,48.196,0.093746
28.371,47.689,0.09539
28.421,47.183,0.087019
28.471,46.677,0.22358
28.521,46.171,0.34904
28.571,45.666,0.41794
28.621,45.162,0.55374
28.671,44.657,0.56011
28.721,44.154,0.55333
28.771,43.65,0.57176
28.821,43.147,0.52765
28.871,42.644,0.41142
28.921,42.142,0.52557
28.971,41.64,0.65543
29.021,41.138,0.68453
29.071,40.636,0.71541
29.121,40.135,0.82245
29.171,39.635,0.85421
29.221,39.134,0.84942
29.271,38.634,1.0391
29.321,38.135,1.1988
29.371,37.635,1.2514
29.421,37.136,1.2147
29.471,36.638,1.2543
29.521,36.139,1.5052
29.571,35.641,1.6872
29.621,35.144,1.7422
29.671,34.647,1.776
29.721,34.15,1.7551
29.771,33.653,1.6245
29.821,33.156,1.636
29.871,32.66,1.7943
29.921,32.164,1.868
29.971,31.668,1.9673
30.021,31.172,2.0827
30.071,30.677,2.1227
30.121,30.182,2.4206
30.171,29.688,2.8691
30.221,29.194,2.9792
30.271,28.7,2.9858
30.321,28.206,3.1871
30.371,27.713,3.4362
30.421,27.219,3.5569
30.471,26.727,3.7247
30.521,26.234,4.0603
30.571,25.742,4.3158
30.621,25.25,4.4357
30.671,24.758,4.6546
30.721,24.267,4.9219
30.771,23.776,5.1353
30.821,23.285,5.3034
30.871,22.794,5.4658
30.921,22.304,5.7605
30.971,21.814,6.117
31.021,21.324,6.2415
31.071,20.834,6.2775
31.121,20.344,6.2704
31.171,19.855,6.3409
31.221,19.365,6.693
31.271,18.876,7.2607
31.321,18.388,7.5913
31.371,17.899,7.7638
31.421,17.411,8.1118
31.471,16.923,8.6553
31.521,16.435,9.2602
31.571,15.947,9.8538
31.621,15.46,10.423
31.671,14.974,10.82
31.721,14.487,11.336
31.771,14.001,11.889
31.821,13.515,12.496
31.871,13.029,13.245
31.921,12.544,14.032
31.971,12.059,14.561
32.021,11.574,15.135
32.071,11.09,15.515
32.121,10.605,16.109
32.171,10.121,17.068
32.221,9.6369,18.09
32.271,9.1534,19.128
32.321,8.6704,20.29
32.371,8.1877,21.304
32.421,7.7052,22.669
32.471,7.2232,24.286
32.521,6.7418,25.756
32.571,6.2607,27.289
32.621,5.7802,28.899
32.671,5.3,30.477
32.721,4.8202,32.186
32.771,4.3409,34.079
32.821,3.8621,36.133
32.871,3.3841,38.325
32.921,2.9069,40.555
32.971,2.4304,42.844
33.021,1.9534,45.241
33.071,1.4709,47.742
33.121,0.98862,50.266
33.171,0.50664,52.829
33.221,0.024689,55.466
33.271,-0.45673,58.124
33.321,-0.93778,60.805
33.371,-1.4184,63.491
33.421,-1.8986,66.1
33.471,-2.3779,68.607
33.521,-2.8565,71.11
33.571,-3.3342,73.513
33.621,-3.811,75.709
33.671,-4.2861,77.657
33.721,-4.7598,79.754
33.771,-5.2321,81.715
33.821,-5.7025,83.451
33.871,-6.171,85.338
33.921,-6.638,87.365
33.971,-7.1036,89.481
34.021,-7.5681,91.703
34.071,-8.0313,93.572
34.121,-8.4921,95.113
34.171,-8.9507,96.759
34.221,-9.4067,98.121
34.271,-9.8594,99.372
34.321,-10.309,100.7
34.371,-10.755,101.83
34.421,-11.197,102.75
34.471,-11.634,103.72
34.521,-12.068,104.82
34.571,-12.496,105.94
34.621,-12.921,107.22
34.671,-13.342,108.65
34.721,-13.761,110.14
34.771,-14.176,111.36
34.821,-14.589,112.46
34.871,-15.001,113.46
34.921,-15.411,114.58
34.971,-15.82,115.69
35.021,-16.228,117
35.071,-16.636,118.66
35.121,-17.044,120.31
35.171,-17.454,121.84
35.221,-17.864,123.44
35.271,-18.276,124.93
35.321,-18.688,126.27
35.371,-19.102,127.67
35.421,-19.516,129.26
35.471,-19.933,130.9
35.521,-20.352,132.5
35.571,-20.774,133.95
35.621,-21.197,135.21
35.671,-21.622,136.85
35.721,-22.051,138.6
35.771,-22.483,140.16
35.821,-22.917,141.79
35.871,-23.355,143.42
35.921,-23.796,145.1
35.971,-24.241,146.8
36.021,-24.688,148.39
36.071,-25.139,150.11
36.121,-25.593,151.93
36.171,-26.05,153.68
36.221,-26.509,155.29
36.271,-26.972,156.87
36.321,-27.436,158.52
36.371,-27.903,159.99
36.421,-28.371,161.35
36.471,-28.842,162.63
36.521,-29.313,163.9
36.571,-29.786,165.09
36.621,-30.26,166.08
36.671,-30.736,167.13
36.721,-31.212,168.27
36.771,-31.689,169.4
36.821,-32.167,170.6
36.871,-32.646,171.8
36.921,-33.125,172.73
36.971,-33.605,173.7
37.021,-34.086,174.57
37.071,-34.567,175.17
37.121,-35.048,175.81
37.171,-35.529,176.37
37.221,-36.01,176.78
37.271,-36.491,177.03
37.321,-36.972,177.32
37.371,-37.454,177.43
37.421,-37.934,177.41
37.471,-38.415,177.4
37.521,-38.895,177.31
37.571,-39.375,177.19
37.621,-39.854,176.88
37.671,-40.332,176.32
37.721,-40.809,175.7
37.771,-41.285,175.03
37.821,-41.76,174.32
37.871,-42.233,173.57
37.921,-42.703,172.74
37.971,-43.172,171.81
38.021,-43.637,170.77
38.071,-44.099,169.58
38.121,-44.557,168.34
38.171,-45.009,167.11
38.221,-45.455,165.88
38.271,-45.895,164.64
38.295,-45.418,NaN
38.317,-44.919,NaN
38.339,-44.42,NaN
38.362,-43.922,NaN
38.386,-43.423,NaN
38.411,-42.924,NaN
38.437,-42.425,NaN
38.463,-41.927,NaN
38.491,-41.428,NaN
38.519,-40.929,NaN
38.549,-40.431,NaN
38.58,-39.932,NaN
38.612,-39.433,NaN
38.645,-38.935,NaN
38.68,-38.436,NaN
38.717,-37.937,NaN
38.755,-37.439,NaN
38.795,-36.94,NaN
38.837,-36.442,NaN
38.881,-35.943,NaN
38.927,-35.445,NaN
38.976,-34.946,NaN
39.028,-34.448,NaN
39.083,-33.95,NaN
39.141,-33.453,NaN
39.203,-32.955,NaN
39.27,-32.457,NaN
39.341,-31.959,NaN
39.418,-31.461,NaN
39.501,-30.964,NaN
39.592,-30.465,NaN
39.692,-29.967,NaN
39.802,-29.469,NaN
39.925,-28.972,NaN
40.062,-28.478,NaN
40.219,-27.984,NaN
40.402,-27.489,NaN
40.62,-26.993,NaN
40.888,-26.497,NaN
41.234,-26,NaN
41.713,-25.508,NaN
42.213,-25.189,NaN
42.713,-24.993,NaN
43.213,-24.87,NaN
43.713,-24.789,NaN
44.213,-24.734,NaN
44.713,-24.694,NaN
45.213,-24.664,NaN
45.713,-24.639,NaN
46.213,-24.618,NaN
46.713,-24.598,NaN
47.213,-24.581,NaN
47.713,-24.563,NaN
48.213,-24.547,NaN
48.713,-24.53,NaN
49.213,-24.514,NaN
49.713,-24.498,NaN
50.213,-24.482,NaN
50.713,-24.466,NaN
51.213,-24.45,NaN
51.713,-24.435,NaN
52.213,-24.419,NaN
52.713,-24.403,NaN
53.213,-24.388,NaN
53.713,-24.372,NaN
54.213,-24.357,NaN
54.713,-24.342,NaN
55.213,-24.326,NaN
55.713,-24.311,NaN
56.213,-24.295,NaN
56.713,-24.28,NaN
57.213,-24.265,NaN
57.713,-24.25,NaN
58.213,-24.235,NaN
58.713,-24.22,NaN
59.213,-24.205,NaN
59.713,-24.19,NaN
60.213,-24.175,NaN
60.713,-24.161,NaN
61.213,-24.146,NaN
61.713,-24.131,NaN
62.213,-24.116,NaN
62.713,-24.1,NaN
63.213,-24.085,NaN
63.713,-24.069,NaN
64.213,-24.054,NaN
64.713,-24.039,NaN
65.213,-24.023,NaN
65.713,-24.008,NaN
66.213,-23.993,NaN
66.713,-23.977,NaN
67.213,-23.962,NaN
67.713,-23.947,NaN
68.213,-23.932,NaN
68.713,-23.917,NaN
69.213,-23.902,NaN
69.713,-23.887,NaN
70.213,-23.872,NaN
70.713,-23.857,NaN
71.213,-23.842,NaN
71.713,-23.828,NaN
72.213,-23.813,NaN
72.713,-23.798,NaN
73.213,-23.784,NaN
73.713,-23.769,NaN
74.213,-23.755,NaN
74.713,-23.74,NaN
75.213,-23.726,NaN
75.713,-23.711,NaN
76.213,-23.697,NaN
76.713,-23.683,NaN
77.213,-23.668,NaN
77.713,-23.654,NaN
78.213,-23.64,NaN
78.713,-23.626,NaN
79.213,-23.612,NaN
79.713,-23.597,NaN
80.213,-23.583,NaN
80.713,-23.57,NaN
81.213,-23.556,NaN
81.713,-23.542,NaN
82.213,-23.528,NaN
82.713,-23.513,NaN
83.213,-23.499,NaN
83.713,-23.485,NaN
84.213,-23.47,NaN
84.713,-23.456,NaN
85.213,-23.441,NaN
85.713,-23.427,NaN
86.213,-23.413,NaN
86.713,-23.398,NaN
87.213,-23.384,NaN
87.713,-23.37,NaN
88.213,-23.356,NaN
88.713,-23.341,NaN
89.213,-23.327,NaN
89.713,-23.313,NaN
90.213,-23.299,NaN
90.713,-23.285,NaN
91.213,-23.271,NaN
91.713,-23.257,NaN
92.213,-23.243,NaN
92.713,-23.229,NaN
93.213,-23.216,NaN
93.713,-23.202,NaN
94.213,-23.188,NaN
94.713,-23.174,NaN
95.213,-23.161,NaN
95.713,-23.147,NaN
96.213,-23.133,NaN
96.713,-23.12,NaN
97.213,-23.106,NaN
97.713,-23.093,NaN
98.213,-23.079,NaN
98.713,-23.065,NaN
99.213,-23.052,NaN
99.713,-23.039,NaN
100.21,-23.026,NaN
100.71,-23.013,NaN
101.21,-22.999,NaN
101.71,-22.986,NaN
102.21,-22.973,NaN
102.71,-22.96,NaN
103.21,-22.947,NaN
103.71,-22.934,NaN
104.21,-22.921,NaN
104.71,-22.908,NaN
105.21,-22.894,NaN
105.71,-22.88,NaN
106.21,-22.867,NaN
106.71,-22.853,NaN
107.21,-22.84,NaN
107.71,-22.826,NaN
108.21,-22.812,NaN
108.71,-22.799,NaN
109.21,-22.786,NaN
109.71,-22.772,NaN
110.21,-22.759,NaN
110.71,-22.745,NaN
111.21,-22.732,NaN
111.71,-22.719,NaN
112.21,-22.706,NaN
112.71,-22.692,NaN
113.21,-22.68,NaN
113.71,-22.667,NaN
114.21,-22.654,NaN
114.71,-22.641,NaN
115.21,-22.628,NaN
115.71,-22.615,NaN
116.21,-22.602,NaN
116.71,-22.589,NaN
117.21,-22.576,NaN
117.71,-22.563,NaN
118.21,-22.55,NaN
118.71,-22.538,NaN
119.21,-22.525,NaN
119.71,-22.513,NaN
120.21,-22.5,NaN
120.71,-22.488,NaN
121.21,-22.475,NaN
121.71,-22.462,NaN
122.21,-22.45,NaN
122.71,-22.438,NaN
123.21,-22.425,NaN
123.71,-22.412,NaN
124.21,-22.4,NaN
124.71,-22.388,NaN
125.21,-22.376,NaN
125.71,-22.363,NaN
126.21,-22.351,NaN
126.71,-22.338,NaN
127.21,-22.326,NaN
127.71,-22.313,NaN
128.21,-22.3,NaN
128.71,-22.288,NaN
129.21,-22.275,NaN
129.71,-22.262,NaN
130.21,-22.249,NaN
130.71,-22.237,NaN
131.21,-22.224,NaN
131.71,-22.212,NaN
132.21,-22.199,NaN
132.71,-22.186,NaN
133.21,-22.174,NaN
133.71,-22.161,NaN
134.21,-22.149,NaN
134.71,-22.137,NaN
135.21,-22.124,NaN
135.71,-22.112,NaN
136.21,-22.1,NaN
136.71,-22.088,NaN
137.21,-22.076,NaN
137.71,-22.063,NaN
138.21,-22.051,NaN
138.71,-22.039,NaN
139.21,-22.027,NaN
139.71,-22.015,NaN
140.21,-22.003,NaN
140.71,-21.991,NaN
141.21,-21.979,NaN
141.71,-21.967,NaN
142.21,-21.955,NaN
142.71,-21.943,NaN
143.21,-21.932,NaN
143.71,-21.92,NaN
144.21,-21.908,NaN
144.71,-21.896,NaN
145.21,-21.885,NaN
145.71,-21.873,NaN
146.21,-21.861,NaN
146.71,-21.849,NaN
147.21,-21.838,NaN
147.71,-21.827,NaN
148.21,-21.815,NaN
148.71,-21.803,NaN
149.21,-21.791,NaN
149.71,-21.78,NaN
150.21,-21.767,NaN
150.71,-21.756,NaN
151.21,-21.744,NaN
151.71,-21.732,NaN
152.21,-21.72,NaN
152.71,-21.708,NaN
153.21,-21.696,NaN
153.71,-21.684,NaN
154.21,-21.672,NaN
154.71,-21.66,NaN
155.21,-21.649,NaN
155.71,-21.637,NaN
156.21,-21.625,NaN
156.71,-21.614,NaN
157.21,-21.602,NaN
157.71,-21.59,NaN
158.21,-21.579,NaN
158.71,-21.567,NaN
159.21,-21.556,NaN
159.71,-21.544,NaN
160.21,-21.533,NaN
160.71,-21.521,NaN
161.21,-21.51,NaN
161.71,-21.499,NaN
162.21,-21.487,NaN
162.71,-21.475,NaN
163.21,-21.464,NaN
163.71,-21.453,NaN
164.21,-21.442,NaN
164.71,-21.431,NaN
165.21,-21.42,NaN
165.71,-21.409,NaN
166.21,-21.398,NaN
166.71,-21.386,NaN
167.21,-21.375,NaN
167.71,-21.363,NaN
168.21,-21.352,NaN
168.71,-21.341,NaN
169.21,-21.331,NaN
169.71,-21.32,NaN
170.21,-21.31,NaN
170.71,-21.299,NaN
171.21,-21.288,NaN
171.71,-21.277,NaN
172.21,-21.266,NaN
172.71,-21.255,NaN
173.21,-21.243,NaN
173.71,-21.231,NaN
174.21,-21.221,NaN
174.71,-21.209,NaN
175.21,-21.198,NaN
175.71,-21.187,NaN
176.21,-21.176,NaN
176.71,-21.164,NaN
177.21,-21.153,NaN
177.71,-21.141,NaN
178.21,-21.131,NaN
178.71,-21.12,NaN
179.21,-21.109,NaN
179.71,-21.098,NaN
180.21,-21.087,NaN
180.71,-21.076,NaN
181.21,-21.065,NaN
181.71,-21.054,NaN
182.21,-21.044,NaN
182.71,-21.033,NaN
183.21,-21.022,NaN
183.71,-21.011,NaN
184.21,-21,NaN
184.71,-20.989,NaN
185.21,-20.979,NaN
185.71,-20.968,NaN
186.21,-20.957,NaN
186.71,-20.947,NaN
187.21,-20.936,NaN
187.71,-20.926,NaN
188.21,-20.915,NaN
188.71,-20.904,NaN
189.21,-20.894,NaN
189.71,-20.883,NaN
190.21,-20.873,NaN
190.71,-20.863,NaN
191.21,-20.852,NaN
191.71,-20.842,NaN
192.21,-20.831,NaN
192.71,-20.821,NaN
193.21,-20.811,NaN
193.71,-20.801,NaN
194.21,-20.791,NaN
194.71,-20.781,NaN
195.21,-20.77,NaN
195.71,-20.759,NaN
196.21,-20.749,NaN
196.71,-20.739,NaN
197.21,-20.728,NaN
197.71,-20.717,NaN
198.21,-20.707,NaN
198.71,-20.696,NaN
199.21,-20.686,NaN
199.71,-20.675,NaN
200.21,-20.665,NaN
200.71,-20.654,NaN
201.21,-20.644,NaN
201.22,-20.144,NaN
201.22,-19.644,NaN
201.22,-19.144,NaN
201.23,-18.644,NaN
201.23,-18.144,NaN
201.23,-17.644,NaN
201.24,-17.144,NaN
201.24,-16.644,NaN
201.25,-16.144,NaN
201.25,-15.644,NaN
201.26,-15.144,NaN
201.27,-14.644,NaN
201.27,-14.144,NaN
201.28,-13.644,NaN
201.29,-13.144,NaN
201.3,-12.644,NaN
201.31,-12.144,NaN
201.32,-11.644,NaN
201.33,-11.144,NaN
201.34,-10.644,NaN
201.36,-10.144,NaN
201.37,-9.644,NaN
201.39,-9.144,NaN
201.41,-8.644,NaN
201.44,-8.144,NaN
201.47,-7.6441,NaN
201.51,-7.1443,NaN
201.56,-6.6445,NaN
201.62,-6.1445,NaN
201.72,-5.6458,NaN
201.91,-5.1513,NaN
202.41,-4.8455,NaN
202.91,-5.1392,NaN
203.41,-4.8572,NaN
203.91,-5.1251,NaN
204.41,-4.8721,NaN
204.91,-5.1107,NaN
205.41,-4.8679,NaN
205.91,-5.1139,NaN
206.41,-4.8783,NaN
206.91,-5.0907,NaN
207.41,-4.8935,NaN
207.91,-5.0862,NaN
208.41,-4.8989,NaN
208.91,-5.0732,NaN
209.41,-4.9061,NaN
209.91,-5.067,NaN
210.41,-4.9155,NaN
210.91,-5.0552,NaN
211.41,-4.9177,NaN
211.91,-5.0524,NaN
212.41,-4.9208,NaN
212.91,-5.0504,NaN
213.41,-4.923,NaN
213.91,-5.0382,NaN
214.41,-4.9296,NaN
214.91,-5.036,NaN
215.41,-4.9305,NaN
215.91,-5.0277,NaN
216.41,-4.9299,NaN
216.91,-5.0329,NaN
217.41,-4.9288,NaN
217.91,-5.023,NaN
218.41,-4.9384,NaN
218.91,-5.0119,NaN
219.41,-4.9449,NaN
219.91,-5.0069,NaN
220.41,-4.9484,NaN
220.91,-5.0034,NaN
221.41,-4.9516,NaN
221.91,-4.998,NaN
222.41,-4.9474,NaN
222.91,-4.9934,NaN
223.41,-4.9559,NaN
223.91,-4.9902,NaN
224.41,-4.9571,NaN
224.91,-4.987,NaN
225.41,-4.958,NaN
225.91,-4.9851,NaN
226.41,-4.9578,NaN
226.91,-4.9811,NaN
227.41,-4.954,NaN
227.91,-4.9691,NaN
228.41,-4.9672,NaN
228.91,-4.9656,NaN
229.41,-4.9637,NaN
229.91,-4.9642,NaN
230.41,-4.9649,NaN
230.91,-4.9664,NaN
231.36,-4.9366,NaN
231.86,-4.9744,NaN
232.36,-4.9538,NaN
232.86,-4.9514,NaN
233.36,-4.9512,NaN
233.86,-4.973,NaN
234.36,-4.9503,NaN
234.86,-4.9666,NaN
235.36,-4.937,NaN
235.86,-4.973,NaN
236.36,-4.9459,NaN
236.86,-4.9635,NaN
237.27,-4.925,NaN
237.77,-4.9864,NaN
238.27,-4.9254,NaN
238.77,-4.9861,NaN
239.27,-4.9205,NaN
239.64,-4.9378,NaN
240.14,-4.9714,NaN
240.64,-4.9357,NaN
241.14,-4.9715,NaN
241.64,-4.9352,NaN
242.14,-4.9639,NaN
242.64,-4.9273,NaN
243.14,-4.9726,NaN
243.64,-4.9297,NaN
244.14,-4.9702,NaN
244.64,-4.9298,NaN
245.14,-4.9648,NaN
245.64,-4.9323,NaN
246.14,-4.9489,NaN
246.64,-4.9459,NaN
247.14,-4.945,NaN
247.64,-4.9307,NaN
248.14,-4.944,NaN
248.64,-4.9407,NaN
249.14,-4.9438,NaN
249.64,-4.921,NaN
250.14,-4.961,NaN
250.64,-4.925,NaN
251.14,-4.955,NaN
251.64,-4.9195,NaN
252.14,-4.9623,NaN
252.64,-4.9192,NaN
253.14,-4.9598,NaN
253.64,-4.9155,NaN
254.14,-4.9446,NaN
254.64,-4.9227,NaN
255.14,-4.9523,NaN
255.64,-4.922,NaN
256.14,-4.9494,NaN
256.64,-4.9216,NaN
257.14,-4.9427,NaN
257.64,-4.9046,NaN
258.14,-4.9614,NaN
258.64,-4.9025,NaN
259.14,-4.9406,NaN
259.64,-4.9245,NaN
260.14,-4.9379,NaN
260.64,-4.9248,NaN
261.14,-4.9368,NaN
261.64,-4.9215,NaN
262.14,-4.9324,NaN
262.64,-4.9246,NaN
263.14,-4.9324,NaN
263.64,-4.9235,NaN
264.14,-4.9312,NaN
264.64,-4.9214,NaN
265.14,-4.9294,NaN
265.64,-4.9218,NaN
266.14,-4.9283,NaN
266.64,-4.9091,NaN
267.14,-4.9318,NaN
267.64,-4.909,NaN
268.14,-4.936,NaN
268.64,-4.9085,NaN
269.14,-4.9285,NaN
269.64,-4.9071,NaN
270.14,-4.9293,NaN
270.64,-4.9099,NaN
271.14,-4.9287,NaN
271.64,-4.8894,NaN
272.14,-4.9438,NaN
272.64,-4.8709,NaN
273.14,-4.9617,NaN
273.64,-4.8638,NaN
274.14,-4.9653,NaN
274.64,-4.8605,NaN
275.14,-4.9537,NaN
275.64,-4.8723,NaN
